File: examples/data/RAT_data.csv
Wavelength(nm),Spectral intensity (W m-2 nm-1),Reflection (Total),Reflection (External),Reflection (Escape),Absorption (Substrate),Absorption (Front films),Absorption (Rear films),Absorption (Detached reflector),Transmission,Pathlength enhancement factor (z)
900,0.652625,0.0639465,0.0639465,0,0.935816,0,0,0,0,1.3667
905,0.7506,0.0668585,0.0668585,0,0.932766,0,0,0,0,1.36383
910,0.663775,0.078926,0.078926,0,0.920534,0,0,0,0,1.37467
915,0.644275,0.0672318,0.0672318,0,0.931806,0,0,0,0,1.34825
920,0.71375,0.0643904,0.0643904,0,0.934377,0,0,0,0,1.38173
925,0.72535,0.0604635,0.0604635,0,0.937335,0,0,0,0,1.34957
930,0.459025,0.0900192,0.0900192,0,0.906971,0,0,0,0.000119,1.36618
935,0.195225,0.0772285,0.0772285,0,0.919568,0,0,0,9.88938e-05,1.44572
940,0.364525,0.0758019,0.0758019,0,0.91988,0,0,0,7.04209e-05,1.46653
945,0.299525,0.0650515,0.0650515,0,0.932153,0,0,0,9.31588e-05,1.71648
950,0.3369,0.0631098,0.0631098,0,0.935995,0,0,0,0.000103752,2.23494
955,0.343475,0.0999125,0.0999125,0,0.898717,0,0,0,0.000143924,2.24455
960,0.427425,0.0663141,0.0663141,0,0.932288,0,0,0,0,2.42758
965,0.49515,0.0542393,0.0542393,0,0.942799,0,0,0,0.000476353,2.33942
970,0.66725,0.0846461,0.0846461,0,0.912971,0,0,0,0.000314693,2.64064
975,0.596225,0.0698962,0.0698962,0,0.926577,0,0,0,0.000390141,2.67583
980,0.650625,0.0706853,0.0706853,0,0.924692,0,0,0,0.000827049,2.77255
985,0.715275,0.0667173,0.0667173,0,0.926843,0,0,0,0.000477113,2.84898
990,0.74175,0.0914552,0.0874847,0.00397047,0.90721,0,0,0,0,3.25797
995,0.744725,0.0685546,0.0623259,0.00622869,0.928939,0,0,0,0,3.27389
1000,0.734975,0.0704445,0.0614104,0.00903412,0.926427,0,0,0,0.00051633,3.39988
1005,0.71365,0.101761,0.0880185,0.0137421,0.893897,0,0,0,0.00230126,3.43018
1010,0.719575,0.087183,0.0680946,0.0190883,0.905175,0,0,0,0.0050425,3.47714
1015,0.7105,0.0922723,0.0644809,0.0277914,0.897973,0,0,0,0.00762307,3.54762
1020,0.69665,0.128365,0.0952359,0.0331296,0.862793,0,0,0,0.00654279,3.85849
1025,0.6925,0.128745,0.0847302,0.0440148,0.858879,0,0,0,0.0102695,4.0214
1030,0.686875,0.132534,0.081145,0.0513886,0.850176,0,0,0,0.0143347,4.30125
1035,0.677225,0.155518,0.085075,0.0704432,0.822535,0,0,0,0.0191633,4.34785
1040,0.6707,0.17506,0.0846128,0.0904473,0.802227,0,0,0,0.0202771,4.66078
1045,0.658725,0.166288,0.0600449,0.106243,0.796502,0,0,0,0.0351656,4.84646
1050,0.6544,0.21656,0.0866146,0.129945,0.745171,0,0,0,0.0354718,5.19242
1055,0.645275,0.232239,0.0804699,0.151769,0.718536,0,0,0,0.0466678,5.55652
1060,0.627325,0.22983,0.072192,0.157637,0.714495,0,0,0,0.0530465,6.62943
1065,0.622625,0.244541,0.0439841,0.200557,0.680361,0,0,0,0.0726533,6.54459
1070,0.606725,0.305644,0.0846133,0.221031,0.631429,0,0,0,0.0604681,7.35347
1075,0.606075,0.305513,0.0832379,0.222275,0.629026,0,0,0,0.0632973,8.18879
1080,0.593825,0.364237,0.0867299,0.277507,0.571474,0,0,0,0.0615118,7.94853
1085,0.57705,0.343009,0.0910848,0.251924,0.579869,0,0,0,0.0729076,9.3709
1090,0.575575,0.380649,0.0920269,0.288622,0.53828,0,0,0,0.0793497,9.57474
1095,0.5289,0.388296,0.0712187,0.317077,0.529026,0,0,0,0.0789788,10.3075
1100,0.493,0.375228,0.053657,0.321571,0.503099,0,0,0,0.116911,10.8586
1105,0.461375,0.433926,0.0695925,0.364334,0.452337,0,0,0,0.11092,10.7656
1110,0.4075,0.458312,0.0808412,0.377471,0.43065,0,0,0,0.1072,11.709
1115,0.22632,0.443496,0.0432226,0.400273,0.423073,0,0,0,0.12975,12.4567
1120,0.145405,0.479984,0.0770035,0.402981,0.368931,0,0,0,0.147472,12.7937
1125,0.115062,0.520109,0.0962567,0.423852,0.340856,0,0,0,0.138911,13.5293
1130,0.160113,0.469618,0.0660515,0.403567,0.33692,0,0,0,0.193023,14.9197
1135,0.1249,0.52656,0.0758989,0.450661,0.296307,0,0,0,0.17698,15.5689
1140,0.238875,0.587226,0.0688792,0.518347,0.266298,0,0,0,0.146416,16.8822
1145,0.1603,0.578554,0.0648774,0.513677,0.242597,0,0,0,0.178849,17.9123
1150,0.206275,0.607439,0.0663239,0.541115,0.200588,0,0,0,0.191923,17.7773
1155,0.257175,0.596665,0.0596194,0.537046,0.190269,0,0,0,0.205242,20.5592
1160,0.328825,0.61243,0.0881532,0.524277,0.16153,0,0,0,0.22604,23.2645
1165,0.405075,0.668575,0.0893751,0.5792,0.1366,0,0,0,0.194825,25.4734
1170,0.4394,0.631271,0.101117,0.530153,0.105533,0,0,0,0.263196,28.7061
1175,0.434775,0.634716,0.061489,0.573227,0.0747518,0,0,0,0.290532,29.2045
1180,0.416875,0.646779,0.0695107,0.577269,0.037631,0,0,0,0.313233,31.8051
1185,0.432525,0.715256,0.0795681,0.635688,0.027791,0,0,0,0.253994,30.5495
1190,0.427925,0.67932,0.0709648,0.608355,0.0203642,0,0,0,0.297562,30.7843
1195,0.454,0.692576,0.078565,0.614011,0.0160389,0,0,0,0.291385,30.2479
1200,0.4242,0.677689,0.0699582,0.607731,0.0119595,0,0,0,0.310351,29.3697