File: examples/data/RAT_data_300um_2um_55.csv
Wavelength(nm),Spectral intensity (W m-2 nm-1),Reflection (Total),Reflection (External),Reflection (Escape),Absorption (Substrate),Absorption (Front films),Absorption (Rear films),Absorption (Detached reflector),Transmission,Pathlength enhancement factor (z)
900,0.74645,0.0800111,0.0800111,0,0.919126,0,0,0,0,1.3041
920,0.6726,0.0772769,0.0772769,0,0.920451,0,0,0,0,1.28387
940,0.30325,0.0729688,0.0729688,0,0.922271,0,0,0,6.28685e-05,1.44039
960,0.43975,0.0789367,0.0789367,0,0.918765,0,0,0,0.000203974,2.28139
980,0.668025,0.0748117,0.074801,1.06556e-05,0.9204,0,0,0,0.000688606,2.75521
1000,0.731575,0.0870086,0.0774751,0.00953351,0.90865,0,0,0,0.00142206,3.28148
1020,0.70075,0.112192,0.076104,0.036088,0.877686,0,0,0,0.00711485,3.75467
1040,0.66955,0.175654,0.0788448,0.096809,0.802211,0,0,0,0.0189137,4.53285
1060,0.63045,0.244715,0.0689173,0.175798,0.709175,0,0,0,0.0427373,6.46323
1080,0.592825,0.322782,0.0770416,0.245741,0.620604,0,0,0,0.052669,9.00406
1100,0.49625,0.429587,0.0830831,0.346504,0.483889,0,0,0,0.0840983,10.7346
1120,0.182265,0.487681,0.0681739,0.419507,0.385044,0,0,0,0.124542,13.3382
1140,0.184785,0.57884,0.0678492,0.51099,0.234596,0,0,0,0.182842,14.5024
1160,0.3266,0.622215,0.079257,0.542958,0.115541,0,0,0,0.260321,15.9669
1180,0.42725,0.64517,0.0675834,0.577587,0.0244611,0,0,0,0.326285,20.4489
1200,0.437325,0.68055,0.0741675,0.606383,0.0101678,0,0,0,0.305667,25.0849